Data File Name,2100 expert_High Sensitivity DNA Assay_DE13807144_2017-08-04_14-04-08.xad
Data File Path,C:\Program Files (x86)\Agilent\2100 bioanalyzer\2100 expert\data\2017-08-04
Date Created,04 August 2017 13:04:08
Date Last Modified,04 August 2017 14:40:00
Version Created,B.02.08.SI648
Version Last Modified,B.02.08.SI648
 
Assay Name,High Sensitivity DNA
Assay Path,C:\Program Files (x86)\Agilent\2100 bioanalyzer\2100 expert\assays\dsDNA
Assay Title,High Sensitivity DNA Assay
Assay Version,1.03
 
Number of Samples Run,11
 
Sample Name,CEG56_171_1PC
Number of Events,2121
 
Time,Value
32,2.886963E-02
32.05,2.886963E-02
32.1,2.886963E-02
32.15,2.886963E-02
32.2,2.886963E-02
32.25,2.886963E-02
32.3,2.886963E-02
32.35,2.886963E-02
32.4,2.886963E-02
32.45,2.886963E-02
32.5,2.886963E-02
32.55,2.886963E-02
32.6,4.336058E-02
32.65,2.383766E-02
32.7,3.671513E-02
32.75,6.209448E-02
32.8,0.0952139
32.85,0.1029431
32.9,-2.945277E-02
32.95,-0.2111551
33,-0.2275654
33.05,-0.1108168
33.1,-7.653074E-02
33.15,-8.645605E-02
33.2,-6.121273E-02
33.25,4.601194E-02
33.3,4.424715E-02
33.35,0.1303009
33.4,0.1262309
33.45,0.0591392
33.5,-9.574257E-02
33.55,-0.1045004
33.6,-0.1022168
33.65,-0.2428805
33.7,-0.2972388
33.75,-0.2155526
33.8,-0.1325535
33.85,-0.2301194
33.9,-0.1324223
33.95,-9.270114E-02
34,-0.1600724
34.05,-0.1582596
34.1,-0.1399536
34.15,-0.1615476
34.2,-0.192607
34.25,1.213939E-02
34.3,9.018916E-03
34.35,-6.576801E-02
34.4,-0.1249891
34.45,-0.1642085
34.5,-0.1399738
34.55,5.235034E-02
34.6,0.2480993
34.65,9.585372E-02
34.7,-1.862878E-02
34.75,-8.142455E-02
34.8,7.699968E-02
34.85,0.3900664
34.9,0.6487383
34.95,0.5950427
35,0.3712418
35.05,0.2172063
35.1,0.0254559
35.15,-0.1316744
35.2,-0.250995
35.25,-0.4770614
35.3,-0.5228206
35.35,-0.4223852
35.4,-0.2364529
35.45,-0.138785
35.5,-0.2156554
35.55,-0.2621276
35.6,-0.2527039
35.65,-0.1398505
35.7,-9.138662E-02
35.75,-9.794268E-02
35.8,-0.2329675
35.85,-0.3028197
35.9,-0.1533543
35.95,0.0347444
36,0.1090264
36.05,0.1520423
36.1,-1.089628E-03
36.15,-0.1464305
36.2,-0.1182156
36.25,-4.774806E-02
36.3,8.055992E-02
36.35,6.869349E-02
36.4,5.325775E-02
36.45,-7.946441E-02
36.5,-5.763854E-02
36.55,-0.0482601
36.6,4.405069E-03
36.65,3.276493E-02
36.7,-5.716456E-02
36.75,-7.182987E-02
36.8,-1.110059E-02
36.85,-1.173488E-03
36.9,7.610876E-03
36.95,0.1845772
37,0.1752493
37.05,0.0400495
37.1,-8.865665E-02
37.15,-0.1892553
37.2,-0.2620777
37.25,-0.1060484
37.3,-2.229583E-02
37.35,-5.103491E-02
37.4,-3.391689E-02
37.45,-0.0133641
37.5,-1.108413E-02
37.55,-0.0312136
37.6,-8.398673E-02
37.65,-0.1463496
37.7,-0.1212414
37.75,-9.366177E-02
37.8,-0.1509946
37.85,-0.1590624
37.9,-0.1849365
37.95,-0.1422056
38,-0.1099017
38.05,-8.834706E-02
38.1,-2.151352E-02
38.15,-9.437409E-02
38.2,9.144378E-02
38.25,8.013938E-02
38.3,0.1243163
38.35,0.2299681
38.4,0.2535878
38.45,0.1342154
38.5,-2.650331E-02
38.55,-9.976216E-02
38.6,-0.1914538
38.65,-7.574423E-02
38.7,0.1713644
38.75,0.2553229
38.8,0.1764383
38.85,4.637904E-02
38.9,-0.1247947
38.95,-0.2114833
39,-0.1687058
39.05,3.638306E-02
39.1,0.2294526
39.15,0.1399385
39.2,4.341758E-02
39.25,4.575134E-02
39.3,-2.477535E-03
39.35,-1.924093E-02
39.4,3.169919E-02
39.45,0.1321131
39.5,7.383928E-02
39.55,-6.186191E-02
39.6,-0.128172
39.65,-0.1443878
39.7,-2.577842E-02
39.75,5.970595E-02
39.8,0.1042395
39.85,-8.798418E-03
39.9,-0.1175948
39.95,8.183052E-02
40,0.3492067
40.05,0.5120385
40.1,0.506663
40.15,0.4766303
40.2,0.4686764
40.25,0.5020518
40.3,0.549041
40.35,0.4951128
40.4,0.5259654
40.45,0.6174424
40.5,0.7125616
40.55,0.7295038
40.6,0.6497515
40.65,0.4999607
40.7,0.299161
40.75,0.2697523
40.8,0.2360795
40.85,0.2163742
40.9,0.3444997
40.95,0.4855605
41,0.6472825
41.05,0.7982526
41.1,0.8902184
41.15,0.8674908
41.2,0.8775859
41.25,0.8645405
41.3,0.7737918
41.35,0.8977841
41.4,0.9366478
41.45,1.002667
41.5,1.166136
41.55,1.402024
41.6,1.588296
41.65,1.871022
41.7,2.481903
41.75,2.937176
41.8,3.449198
41.85,4.024786
41.9,4.602781
41.95,5.320403
42,6.420957
42.05,7.801513
42.1,9.270717
42.15,10.79303
42.2,12.03084
42.25,13.09997
42.3,14.15567
42.35,15.27937
42.4,16.41303
42.45,17.76776
42.5,19.23499
42.55,21.17258
42.6,24.51153
42.65,30.08621
42.7,38.7398
42.75,51.3395
42.8,67.81432
42.85,86.56808
42.9,104.4386
42.95,117.2117
43,121.5967
43.05,114.9344
43.1,100.0338
43.15,80.62748
43.2,61.11074
43.25,44.50528
43.3,32.20688
43.35,24.13011
43.4,19.0091
43.45,15.83695
43.5,13.90798
43.55,12.47861
43.6,11.3832
43.65,10.40002
43.7,9.501749
43.75,8.763324
43.8,8.206619
43.85,7.649633
43.9,6.978378
43.95,6.282325
44,5.593304
44.05,5.065149
44.1,4.755081
44.15,4.624159
44.2,4.582872
44.25,4.738093
44.3,5.117826
44.35,5.773545
44.4,6.599103
44.45,7.579067
44.5,8.664001
44.55,9.75887
44.6,10.90516
44.65,12.0781
44.7,13.17975
44.75,14.0863
44.8,14.59689
44.85,14.67563
44.9,14.48499
44.95,13.93764
45,13.24681
45.05,12.46971
45.1,11.5163
45.15,10.37161
45.2,9.17678
45.25,8.168088
45.3,7.261937
45.35,6.467241
45.4,5.649612
45.45,4.799148
45.5,4.033593
45.55,3.478826
45.6,3.193885
45.65,3.121237
45.7,3.102149
45.75,3.190747
45.8,3.40979
45.85,3.624373
45.9,3.838363
45.95,4.00927
46,4.060248
46.05,4.012417
46.1,4.017305
46.15,3.910385
46.2,3.67846
46.25,3.329566
46.3,2.889875
46.35,2.480243
46.4,2.077689
46.45,1.736369
46.5,1.288236
46.55,1.013412
46.6,0.855056
46.65,0.802451
46.7,0.6835677
46.75,0.6700521
46.8,0.6662646
46.85,0.4343857
46.9,0.2758436
46.95,0.1941021
47,0.1173412
47.05,5.132126E-02
47.1,7.519538E-02
47.15,-7.502724E-02
47.2,-0.2896173
47.25,-0.3630039
47.3,-0.2870279
47.35,-7.689888E-02
47.4,1.527801E-02
47.45,9.605174E-02
47.5,3.581423E-02
47.55,-7.620437E-02
47.6,-0.1309931
47.65,-0.1124821
47.7,-0.1368046
47.75,-0.249113
47.8,-0.301078
47.85,-0.4030516
47.9,-0.526874
47.95,-0.5480498
48,-0.5685408
48.05,-0.4406863
48.1,-0.2200696
48.15,-1.951861E-02
48.2,3.247669E-02
48.25,-0.2170055
48.3,-0.4639392
48.35,-0.5756257
48.4,-0.5710781
48.45,-0.4565653
48.5,-0.3175469
48.55,-0.2791951
48.6,-0.2988286
48.65,-0.244472
48.7,-0.234958
48.75,-0.4547982
48.8,-0.6398405
48.85,-0.8126478
48.9,-0.8180232
48.95,-0.6914285
49,-0.5029134
49.05,-0.3954858
49.1,-0.4675485
49.15,-0.6663525
49.2,-0.8712419
49.25,-0.9670113
49.3,-0.7697818
49.35,-0.4637356
49.4,-0.2508582
49.45,-0.1485306
49.5,-0.1035865
49.55,-0.2156477
49.6,-0.4524669
49.65,-0.5499898
49.7,-0.7987275
49.75,-0.897931
49.8,-0.6279441
49.85,-0.3038271
49.9,-0.2169159
49.95,-0.3282176
50,-0.4722734
50.05,-0.5851303
50.1,-0.1549657
50.15,0.3291148
50.2,0.5415247
50.25,0.3566915
50.3,-0.1420326
50.35,-0.6091411
50.4,-0.820533
50.45,-0.7325548
50.5,-0.6352999
50.55,-0.4752334
50.6,-0.4458662
50.65,-0.5534475
50.7,-0.5983714
50.75,-0.5860676
50.8,-0.598738
50.85,-0.5388226
50.9,-0.4803799
50.95,-0.6049281
51,-0.6583934
51.05,-0.7095836
51.1,-0.6028575
51.15,-0.448802
51.2,-0.4127904
51.25,-0.4793578
51.3,-0.478611
51.35,-0.3695222
51.4,-0.434591
51.45,-0.2554289
51.5,-0.3142686
51.55,-0.4518293
51.6,-0.5494956
51.65,-0.5728481
51.7,-0.4712715
51.75,-0.4018425
51.8,-0.3604813
51.85,-0.5230373
51.9,-0.5470484
51.95,-0.5679393
52,-0.6307527
52.05,-0.6248131
52.1,-0.6594703
52.15,-0.6581219
52.2,-0.6290281
52.25,-0.5696636
52.3,-0.7313033
52.35,-0.7635558
52.4,-0.6023197
52.45,-0.4300438
52.5,-0.3862243
52.55,-0.4886102
52.6,-0.7687218
52.65,-0.9664096
52.7,-0.891435
52.75,-0.6997582
52.8,-0.5421659
52.85,-0.4893781
52.9,-0.4492882
52.95,-0.5175663
53,-0.5070681
53.05,-0.6320578
53.1,-0.7737625
53.15,-0.8791731
53.2,-0.9524034
53.25,-0.8702667
53.3,-0.8718137
53.35,-0.9553787
53.4,-0.9745622
53.45,-0.9114493
53.5,-0.9510845
53.55,-0.9463762
53.6,-0.8425053
53.65,-0.8011166
53.7,-0.918977
53.75,-0.7919882
53.8,-0.7364317
53.85,-0.5880163
53.9,-0.3391041
53.95,-0.1893306
54,-0.3277389
54.05,-0.6422235
54.1,-0.8478751
54.15,-0.9229496
54.2,-0.7303733
54.25,-0.5361566
54.3,-0.5018373
54.35,-0.6310557
54.4,-0.7973289
54.45,-1.030369
54.5,-1.012391
54.55,-0.9636855
54.6,-0.9278683
54.65,-0.7998857
54.7,-0.730961
54.75,-0.7119397
54.8,-0.7746492
54.85,-0.8511486
54.9,-1.002659
54.95,-1.055323
55,-1.062751
55.05,-1.117329
55.1,-1.024047
55.15,-0.9704933
55.2,-0.925585
55.25,-0.8371358
55.3,-0.7137602
55.35,-0.7942532
55.4,-0.9661499
55.45,-1.211943
55.5,-1.457336
55.55,-1.534576
55.6,-1.423284
55.65,-1.29918
55.7,-1.201859
55.75,-1.149663
55.8,-1.14176
55.85,-1.060958
55.9,-1.055204
55.95,-1.05117
56,-1.100883
56.05,-1.088472
56.1,-1.038149
56.15,-0.9483339
56.2,-0.8602461
56.25,-0.9429607
56.3,-1.068513
56.35,-1.24135
56.4,-1.351031
56.45,-1.315702
56.5,-1.262398
56.55,-1.195063
56.6,-1.108042
56.65,-1.128723
56.7,-1.232496
56.75,-1.270862
56.8,-1.224541
56.85,-1.264069
56.9,-1.198178
56.95,-1.225835
57,-1.332058
57.05,-1.346076
57.1,-1.276763
57.15,-1.333821
57.2,-1.321991
57.25,-1.271448
57.3,-1.316539
57.35,-1.251259
57.4,-1.170007
57.45,-1.198512
57.5,-1.302975
57.55,-1.285781
57.6,-1.375107
57.65,-1.445477
57.7,-1.340609
57.75,-1.160256
57.8,-1.028439
57.85,-0.9543459
57.9,-0.9950137
57.95,-1.150788
58,-1.326744
58.05,-1.369605
58.1,-1.400768
58.15,-1.342796
58.2,-1.267368
58.25,-1.179016
58.3,-1.169195
58.35,-1.234205
58.4,-1.307251
58.45,-1.312441
58.5,-1.39343
58.55,-1.360358
58.6,-1.206853
58.65,-1.162039
58.7,-1.077048
58.75,-1.009075
58.8,-1.0392
58.85,-1.053084
58.9,-1.001806
58.95,-1.089643
59,-1.169839
59.05,-1.229607
59.1,-1.294569
59.15,-1.215369
59.2,-0.9303164
59.25,-0.8872858
59.3,-1.152314
59.35,-1.324803
59.4,-1.37949
59.45,-1.282647
59.5,-0.9334524
59.55,-0.7561182
59.6,-0.855168
59.65,-1.112415
59.7,-1.258069
59.75,-1.259528
59.8,-1.332994
59.85,-1.268058
59.9,-1.183387
59.95,-1.104833
60,-1.101399
60.05,-1.040144
60.1,-0.9374408
60.15,-0.9751652
60.2,-1.180515
60.25,-1.279413
60.3,-1.401652
60.35,-1.343223
60.4,-1.15379
60.45,-0.9926189
60.5,-0.9211078
60.55,-0.9573128
60.6,-0.8203421
60.65,-0.899775
60.7,-0.9992073
60.75,-1.035881
60.8,-0.9900013
60.85,-0.9416634
60.9,-0.9743113
60.95,-1.040786
61,-1.124609
61.05,-1.008051
61.1,-0.9408783
61.15,-1.000486
61.2,-1.094886
61.25,-1.103128
61.3,-0.9900268
61.35,-0.7726343
61.4,-0.6872265
61.45,-0.652299
61.5,-0.7070808
61.55,-0.7062085
61.6,-0.7284559
61.65,-0.8061847
61.7,-0.8717508
61.75,-0.8332977
61.8,-0.6265157
61.85,-0.4370326
61.9,-0.3069058
61.95,-0.3281253
62,-0.2196227
62.05,-0.2194442
62.1,-0.2077061
62.15,-9.347407E-02
62.2,-7.906845E-02
62.25,-0.105815
62.3,-1.814061E-03
62.35,0.2514545
62.4,0.2715246
62.45,0.2944364
62.5,0.257848
62.55,0.1487764
62.6,0.1468642
62.65,0.2142579
62.7,0.3736861
62.75,0.444074
62.8,0.4724039
62.85,0.5413429
62.9,0.6822099
62.95,0.7145925
63,0.6629989
63.05,0.7798167
63.1,1.098273
63.15,1.387182
63.2,1.681096
63.25,1.900679
63.3,2.306081
63.35,2.784219
63.4,3.383208
63.45,4.135862
63.5,4.759152
63.55,5.233729
63.6,5.355345
63.65,5.232707
63.7,4.523169
63.75,3.754862
63.8,3.313868
63.85,2.919921
63.9,2.820426
63.95,2.855303
64,2.816522
64.05,2.828701
64.1,2.927909
64.15,3.302005
64.2,3.546772
64.25,3.823979
64.3,4.002994
64.35,4.218902
64.4,4.515915
64.45,4.746737
64.5,5.06364
64.55,5.276779
64.6,5.425671
64.65,5.472857
64.7,5.731874
64.75,6.030766
64.8,6.474612
64.85,7.043736
64.9,7.641089
64.95,8.176832
65,8.661273
65.05,9.209074
65.1,9.821261
65.15,10.65736
65.2,11.4152
65.25,11.92288
65.3,12.41754
65.35,13.05792
65.4,13.85426
65.45,14.66446
65.5,15.5292
65.55,16.18153
65.6,17.03241
65.65,18.26746
65.7,19.50332
65.75,20.70951
65.8,21.7886
65.85,23.22023
65.9,25.34069
65.95,28.13114
66,30.69984
66.05,32.56597
66.1,34.13083
66.15,35.5548
66.2,37.6815
66.25,40.19958
66.3,42.60038
66.35,44.99518
66.4,47.2514
66.45,50.13279
66.5,53.44127
66.55,56.38253
66.6,59.06037
66.65,61.8752
66.7,64.86849
66.75,67.78863
66.8,71.54367
66.85,75.04107
66.9,78.44044
66.95,82.16506
67,85.89349
67.05,90.0785
67.1,94.91209
67.15,100.3487
67.2,105.2404
67.25,109.8335
67.3,113.4316
67.35,116.1731
67.4,119.5924
67.45,124.1143
67.5,129.0784
67.55,133.7219
67.6,138.1434
67.65,141.7082
67.7,145.7517
67.75,151.0508
67.8,157.2726
67.85,163.6059
67.9,169.0909
67.95,174.4387
68,180.1215
68.05,186.9704
68.1,194.1431
68.15,201.8265
68.2,209.7946
68.25,218.1362
68.3,227.0489
68.35,237.1941
68.4,247.7487
68.45,257.9877
68.5,268.4969
68.55,277.9724
68.6,287.9279
68.65,298.4367
68.7,310.2787
68.75,322.8725
68.8,335.977
68.85,349.0551
68.9,360.758
68.95,370.4576
69,379.3228
69.05,387.9066
69.1,396.4362
69.15,405.1345
69.2,412.5468
69.25,417.5577
69.3,420.1493
69.35,422.7077
69.4,424.582
69.45,425.4315
69.5,425.6359
69.55,424.7471
69.6,421.7688
69.65,417.1457
69.7,412.3975
69.75,406.9895
69.8,400.4611
69.85,393.7364
69.9,386.8087
69.95,378.9343
70,371.4336
70.05,363.3228
70.1,354.4916
70.15,345.6804
70.2,336.2773
70.25,326.3926
70.3,315.7722
70.35,305.3574
70.4,293.561
70.45,281.6336
70.5,270.8475
70.55,260.5627
70.6,251.2001
70.65,241.9484
70.7,233.6336
70.75,224.0197
70.8,214.9426
70.85,206.8455
70.9,198.694
70.95,189.9128
71,181.3817
71.05,173.5629
71.1,166.0048
71.15,159.6217
71.2,153.6531
71.25,148.1043
71.3,142.3813
71.35,137.2763
71.4,131.5991
71.45,125.6859
71.5,120.5733
71.55,115.5074
71.6,111.4368
71.65,107.0334
71.7,102.4703
71.75,97.99677
71.8,94.08314
71.85,90.79092
71.9,87.18314
71.95,84.11716
72,80.89951
72.05,78.05456
72.1,75.62787
72.15,72.90732
72.2,70.31779
72.25,67.48978
72.3,64.93706
72.35,62.41669
72.4,60.53376
72.45,58.43468
72.5,56.57493
72.55,55.2604
72.6,53.44002
72.65,51.68863
72.7,50.41765
72.75,49.38601
72.8,47.93404
72.85,46.70856
72.9,45.52082
72.95,43.86003
73,42.6755
73.05,41.61942
73.1,40.29017
73.15,38.88292
73.2,37.80807
73.25,36.88794
73.3,36.17443
73.35,35.79552
73.4,35.09376
73.45,34.075
73.5,32.87286
73.55,31.94799
73.6,31.26395
73.65,30.98992
73.7,30.79317
73.75,30.51304
73.8,30.06044
73.85,29.77119
73.9,29.00505
73.95,27.87122
74,26.83294
74.05,26.13012
74.1,25.80011
74.15,25.85407
74.2,26.04702
74.25,25.97341
74.3,25.70119
74.35,25.2412
74.4,24.75405
74.45,24.37825
74.5,24.02114
74.55,24.01262
74.6,24.29546
74.65,24.34046
74.7,24.2551
74.75,24.02424
74.8,23.66569
74.85,23.10302
74.9,22.65675
74.95,22.27481
75,21.82367
75.05,21.75934
75.1,22.1672
75.15,22.51351
75.2,22.70679
75.25,22.8617
75.3,22.91626
75.35,23.24464
75.4,23.71823
75.45,24.15141
75.5,24.41688
75.55,24.28293
75.6,23.84049
75.65,23.46291
75.7,23.63278
75.75,24.05896
75.8,24.40264
75.85,24.74772
75.9,25.00383
75.95,25.52642
76,25.95016
76.05,26.47406
76.1,26.59982
76.15,26.36829
76.2,26.36787
76.25,26.96691
76.3,27.90294
76.35,29.00147
76.4,30.02955
76.45,30.36507
76.5,30.77882
76.55,31.26423
76.6,32.0682
76.65,32.95039
76.7,34.03987
76.75,35.07972
76.8,36.08595
76.85,37.68864
76.9,39.17943
76.95,40.0799
77,40.7835
77.05,41.54258
77.1,42.57088
77.15,43.92266
77.2,45.60337
77.25,47.15968
77.3,48.71476
77.35,50.64703
77.4,53.01056
77.45,55.62294
77.5,57.73743
77.55,59.74706
77.6,61.83492
77.65,63.44781
77.7,64.9222
77.75,67.11597
77.8,69.71669
77.85,72.89698
77.9,76.12569
77.95,79.2168
78,81.8738
78.05,84.4678
78.1,87.74097
78.15,91.03175
78.2,94.00754
78.25,98.02764
78.3,102.3786
78.35,105.9402
78.4,108.7085
78.45,112.065
78.5,115.2851
78.55,118.4176
78.6,122.2744
78.65,125.8503
78.7,129.9442
78.75,134.2355
78.8,139.1865
78.85,143.4816
78.9,147.5586
78.95,151.0652
79,153.5824
79.05,155.8924
79.1,159.1542
79.15,163.578
79.2,167.5839
79.25,171.4559
79.3,175.0575
79.35,177.7311
79.4,179.8573
79.45,182.5098
79.5,184.912
79.55,187.5174
79.6,190.7203
79.65,193.0477
79.7,194.6381
79.75,196.4441
79.8,197.5254
79.85,197.7495
79.9,198.2264
79.95,198.4958
80,198.6712
80.05,200.0277
80.1,200.2862
80.15,197.816
80.2,195.1032
80.25,193.441
80.3,191.6097
80.35,189.8426
80.4,187.6519
80.45,185.3681
80.5,183.5347
80.55,181.9012
80.6,179.6386
80.65,177.3169
80.7,175.0876
80.75,172.0089
80.8,168.1785
80.85,163.3139
80.9,158.8164
80.95,155.1189
81,152.5259
81.05,149.261
81.1,145.6967
81.15,142.5013
81.2,139.9077
81.25,137.7823
81.3,134.2099
81.35,128.3704
81.4,123.2558
81.45,119.7544
81.5,117.0193
81.55,114.225
81.6,111.1326
81.65,107.3235
81.7,103.831
81.75,101.3044
81.8,98.59586
81.85,95.01797
81.9,91.1072
81.95,87.61694
82,84.51176
82.05,81.78596
82.1,78.9708
82.15,76.15594
82.2,73.57364
82.25,71.58422
82.3,69.37965
82.35,67.1099
82.4,65.22548
82.45,63.28391
82.5,61.47768
82.55,59.84528
82.6,57.63816
82.65,54.9108
82.7,52.32315
82.75,50.62319
82.8,49.166
82.85,47.86558
82.9,46.7753
82.95,45.48206
83,43.84701
83.05,41.79856
83.1,40.75243
83.15,39.59871
83.2,38.39397
83.25,37.25375
83.3,35.96016
83.35,34.3921
83.4,33.06776
83.45,32.60159
83.5,32.17488
83.55,31.25539
83.6,30.12334
83.65,29.04608
83.7,28.03058
83.75,27.00554
83.8,25.79154
83.85,24.88342
83.9,23.9247
83.95,23.31643
84,23.11637
84.05,22.67371
84.1,22.03792
84.15,21.49038
84.2,21.43437
84.25,21.21301
84.3,20.78417
84.35,20.45393
84.4,20.21252
84.45,20.04145
84.5,19.67513
84.55,19.13564
84.6,18.27766
84.65,17.53121
84.7,17.40655
84.75,17.53024
84.8,17.4856
84.85,17.4133
84.9,17.27773
84.95,16.74929
85,16.62259
85.05,16.75053
85.1,16.92306
85.15,17.17678
85.2,17.421
85.25,17.36254
85.3,16.99598
85.35,17.36546
85.4,17.59249
85.45,17.63816
85.5,17.39831
85.55,17.15922
85.6,17.16931
85.65,17.73121
85.7,18.53583
85.75,18.91445
85.8,18.63965
85.85,18.09632
85.9,17.56303
85.95,17.56421
86,17.91288
86.05,18.10053
86.1,18.40156
86.15,18.50743
86.2,18.65858
86.25,19.14013
86.3,19.91221
86.35,20.41551
86.4,20.99867
86.45,21.3102
86.5,20.9038
86.55,20.31662
86.6,19.86272
86.65,19.67004
86.7,20.10352
86.75,21.16623
86.8,21.76245
86.85,22.09092
86.9,22.6314
86.95,23.43724
87,24.404
87.05,24.79907
87.1,24.53021
87.15,23.82341
87.2,22.9959
87.25,22.41101
87.3,22.44871
87.35,22.81835
87.4,22.89789
87.45,22.89893
87.5,22.24615
87.55,21.42837
87.6,20.8846
87.65,20.9069
87.7,20.95437
87.75,20.90199
87.8,20.72786
87.85,20.36047
87.9,20.31354
87.95,20.39222
88,19.99468
88.05,19.1519
88.1,18.29018
88.15,17.55905
88.2,17.29148
88.25,17.03958
88.3,16.23369
88.35,15.43355
88.4,15.33545
88.45,15.25383
88.5,15.05735
88.55,14.89423
88.6,14.3165
88.65,13.70223
88.7,13.46147
88.75,12.96732
88.8,12.24643
88.85,11.67629
88.9,11.2191
88.95,10.6534
89,10.07421
89.05,9.362951
89.1,8.69642
89.15,8.384014
89.2,8.262605
89.25,7.893851
89.3,7.623709
89.35,7.356517
89.4,7.118148
89.45,7.027163
89.5,6.921333
89.55,6.631768
89.6,6.071668
89.65,5.456053
89.7,4.801747
89.75,4.404929
89.8,4.262205
89.85,4.15294
89.9,3.892609
89.95,3.482439
90,2.979906
90.05,2.444906
90.1,2.196921
90.15,2.010908
90.2,1.886195
90.25,1.589517
90.3,1.185622
90.35,0.9132583
90.4,0.818019
90.45,0.8363304
90.5,0.9469752
90.55,1.176376
90.6,0.902683
90.65,0.5879063
90.7,0.5297886
90.75,0.3195564
90.8,0.105522
90.85,5.002641E-02
90.9,-0.1717557
90.95,-0.6307268
91,-0.9980665
91.05,-1.337055
91.1,-1.611003
91.15,-1.661838
91.2,-1.648743
91.25,-1.759264
91.3,-1.951758
91.35,-2.155061
91.4,-2.292971
91.45,-2.142178
91.5,-1.853213
91.55,-1.527324
91.6,-1.627598
91.65,-1.967922
91.7,-2.430745
91.75,-2.862177
91.8,-3.072667
91.85,-3.113307
91.9,-2.940134
91.95,-2.757212
92,-2.571687
92.05,-2.552474
92.1,-2.714021
92.15,-3.055503
92.2,-3.32486
92.25,-3.306174
92.3,-3.331218
92.35,-3.468141
92.4,-3.593124
92.45,-3.676595
92.5,-3.690602
92.55,-3.576165
92.6,-3.46824
92.65,-3.481013
92.7,-3.611022
92.75,-3.666757
92.8,-3.653472
92.85,-3.672468
92.9,-3.704842
92.95,-3.668403
93,-3.654067
93.05,-3.676168
93.1,-3.705869
93.15,-4.000998
93.2,-4.233224
93.25,-4.280569
93.3,-4.181072
93.35,-4.048576
93.4,-3.923149
93.45,-3.932738
93.5,-3.994467
93.55,-4.036702
93.6,-4.000994
93.65,-4.01953
93.7,-4.050752
93.75,-4.090844
93.8,-4.18946
93.85,-4.286498
93.9,-4.376957
93.95,-4.381185
94,-4.403423
94.05,-4.339085
94.1,-4.234758
94.15,-4.188225
94.2,-4.212372
94.25,-4.25527
94.3,-4.329203
94.35,-4.328297
94.4,-4.189008
94.45,-4.237968
94.5,-4.194007
94.55,-4.217066
94.6,-4.131629
94.65,-4.050536
94.7,-4.043051
94.75,-4.030023
94.8,-4.059109
94.85,-3.978186
94.9,-4.017858
94.95,-3.99168
95,-4.044976
95.05,-4.068179
95.1,-4.021962
95.15,-3.961474
95.2,-3.94958
95.25,-3.987339
95.3,-3.97077
95.35,-3.92154
95.4,-3.805017
95.45,-3.625414
95.5,-3.54521
95.55,-3.557248
95.6,-3.654484
95.65,-3.725786
95.7,-3.751502
95.75,-3.73973
95.8,-3.635812
95.85,-3.486467
95.9,-3.458312
95.95,-3.590618
96,-3.746538
96.05,-3.903315
96.1,-3.997315
96.15,-3.73538
96.2,-3.500955
96.25,-3.366257
96.3,-3.318697
96.35,-3.351466
96.4,-3.415894
96.45,-3.469821
96.5,-3.47866
96.55,-3.560695
96.6,-3.572476
96.65,-3.575408
96.7,-3.559754
96.75,-3.483798
96.8,-3.366625
96.85,-3.281434
96.9,-3.164102
96.95,-3.137166
97,-3.134876
97.05,-3.269633
97.1,-3.419701
97.15,-3.509246
97.2,-3.534606
97.25,-3.419899
97.3,-3.2754
97.35,-3.141316
97.4,-3.228643
97.45,-3.383949
97.5,-3.419502
97.55,-3.270894
97.6,-2.983975
97.65,-2.797653
97.7,-2.833843
97.75,-3.078408
97.8,-3.323542
97.85,-3.467115
97.9,-3.427414
97.95,-3.357533
98,-3.157467
98.05,-3.010498
98.1,-2.898845
98.15,-2.766479
98.2,-2.769917
98.25,-2.826509
98.3,-2.9247
98.35,-3.091067
98.4,-3.268396
98.45,-3.332799
98.5,-3.271162
98.55,-3.120993
98.6,-3.068741
98.65,-3.033569
98.7,-3.057998
98.75,-3.052985
98.8,-2.982871
98.85,-2.92868
98.9,-2.911237
98.95,-3.017457
99,-2.996167
99.05,-2.896592
99.1,-2.735326
99.15,-2.59411
99.2,-2.568953
99.25,-2.694767
99.3,-2.951943
99.35,-3.160007
99.4,-3.200984
99.45,-3.264235
99.5,-3.223549
99.55,-3.119082
99.6,-3.037733
99.65,-3.011463
99.7,-3.064698
99.75,-3.202079
99.8,-3.363089
99.85,-3.267172
99.9,-2.926462
99.95,-2.706581
100,-2.615711
100.05,-2.717643
100.1,-2.986086
100.15,-3.149508
100.2,-3.100765
100.25,-2.954958
100.3,-2.817228
100.35,-2.866225
100.4,-2.995106
100.45,-3.133249
100.5,-3.147869
100.55,-3.126441
100.6,-3.134288
100.65,-2.975262
100.7,-2.887178
100.75,-2.553499
100.8,-2.376988
100.85,-2.518347
100.9,-2.731814
100.95,-2.957617
101,-3.038685
101.05,-3.009536
101.1,-2.941839
101.15,-3.046115
101.2,-3.07187
101.25,-3.07998
101.3,-3.147361
101.35,-3.205961
101.4,-3.208345
101.45,-3.207688
101.5,-3.174013
101.55,-3.111832
101.6,-3.240395
101.65,-3.245474
101.7,-3.210382
101.75,-3.222768
101.8,-3.169187
101.85,-3.051763
101.9,-2.977371
101.95,-2.949906
102,-2.983805
102.05,-3.102804
102.1,-3.300062
102.15,-3.245179
102.2,-3.031508
102.25,-2.909637
102.3,-2.856371
102.35,-3.021531
102.4,-3.170033
102.45,-3.203007
102.5,-3.211631
102.55,-3.228837
102.6,-3.245716
102.65,-3.196697
102.7,-3.075477
102.75,-2.753029
102.8,-2.449563
102.85,-2.476974
102.9,-2.776041
102.95,-3.108903
103,-3.309179
103.05,-3.199903
103.1,-3.085773
103.15,-3.080776
103.2,-3.085842
103.25,-3.105814
103.3,-3.066419
103.35,-3.008226
103.4,-3.079781
103.45,-3.222271
103.5,-3.289271
103.55,-3.297345
103.6,-3.223734
103.65,-3.260821
103.7,-3.309037
103.75,-3.30584
103.8,-3.055464
103.85,-2.817082
103.9,-2.818586
103.95,-2.951397
104,-3.180269
104.05,-3.214797
104.1,-3.089109
104.15,-2.900841
104.2,-2.885284
104.25,-3.111197
104.3,-3.258623
104.35,-3.239678
104.4,-3.054062
104.45,-3.044324
104.5,-3.151608
104.55,-3.186446
104.6,-3.357423
104.65,-3.38416
104.7,-3.249679
104.75,-3.152085
104.8,-3.284227
104.85,-3.328822
104.9,-3.30533
104.95,-3.375665
105,-3.247327
105.05,-2.939038
105.1,-2.717893
105.15,-2.830141
105.2,-2.973149
105.25,-3.165514
105.3,-3.296215
105.35,-3.24282
105.4,-3.019825
105.45,-2.810269
105.5,-2.751164
105.55,-2.762133
105.6,-2.958001
105.65,-3.129011
105.7,-3.120523
105.75,-2.87324
105.8,-2.659044
105.85,-2.641811
105.9,-2.82642
105.95,-3.035133
106,-3.172435
106.05,-2.999053
106.1,-2.849136
106.15,-2.812819
106.2,-2.909035
106.25,-3.044394
106.3,-3.206657
106.35,-3.192134
106.4,-3.009766
106.45,-2.86555
106.5,-2.751389
106.55,-2.742395
106.6,-2.848529
106.65,-3.096987
106.7,-3.360349
106.75,-3.465278
106.8,-3.299972
106.85,-3.059809
106.9,-2.893099
106.95,-2.877241
107,-2.932236
107.05,-2.972714
107.1,-2.963908
107.15,-2.946386
107.2,-2.963884
107.25,-3.086622
107.3,-3.112647
107.35,-3.103764
107.4,-3.134751
107.45,-3.127398
107.5,-3.111193
107.55,-3.178679
107.6,-3.117094
107.65,-2.767259
107.7,-2.497878
107.75,-2.478329
107.8,-2.791472
107.85,-3.289728
107.9,-3.697612
107.95,-3.768241
108,-3.625908
108.05,-3.352342
108.1,-3.133409
108.15,-3.04859
108.2,-3.160301
108.25,-3.348238
108.3,-3.339353
108.35,-3.232146
108.4,-3.043357
108.45,-2.96699
108.5,-2.972058
108.55,-3.125522
108.6,-3.296022
108.65,-3.405636
108.7,-3.552736
108.75,-3.530042
108.8,-3.337777
108.85,-2.950057
108.9,-2.726752
108.95,-2.69983
109,-2.870121
109.05,-3.075972
109.1,-3.292969
109.15,-3.448117
109.2,-3.25814
109.25,-2.922579
109.3,-2.52819
109.35,-2.292942
109.4,-2.30885
109.45,-2.69465
109.5,-3.295892
109.55,-3.569289
109.6,-3.562485
109.65,-3.275401
109.7,-2.956225
109.75,-3.002644
109.8,-3.418136
109.85,-3.871226
109.9,-3.846797
109.95,-3.609659
110,-3.204334
110.05,-2.92081
110.1,-3.178921
110.15,-3.451979
110.2,-3.436643
110.25,-3.294478
110.3,-3.209291
110.35,-3.068328
110.4,-3.064485
110.45,-3.217232
110.5,-3.275451
110.55,-3.372469
110.6,-3.715754
110.65,-4.085923
110.7,-4.227848
110.75,-4.100298
110.8,-3.87327
110.85,-3.463502
110.9,-3.19615
110.95,-3.25164
111,-3.516969
111.05,-3.821755
111.1,-4.062646
111.15,-4.251584
111.2,-4.238892
111.25,-4.039977
111.3,-3.890682
111.35,-3.910187
111.4,-4.040651
111.45,-4.222118
111.5,-4.367095
111.55,-4.398946
111.6,-4.104316
111.65,-3.735366
111.7,-3.419326
111.75,-3.356317
111.8,-3.719038
111.85,-3.758985
111.9,-3.022421
111.95,-1.949284
112,-1.376544
112.05,-1.473408
112.1,-1.453334
112.15,1.606922E-02
112.2,3.646995
112.25,8.699208
112.3,15.18648
112.35,22.01408
112.4,30.30969
112.45,42.01255
112.5,56.54156
112.55,71.97855
112.6,84.78878
112.65,95.41795
112.7,103.2147
112.75,109.2793
112.8,114.6218
112.85,118.1032
112.9,120.2888
112.95,123.3283
113,128.5844
113.05,128.1954
113.1,119.4869
113.15,107.0384
113.2,93.32011
113.25,80.47578
113.3,71.51519
113.35,65.29868
113.4,56.11503
113.45,46.50529
113.5,39.17569
113.55,31.91341
113.6,25.89395
113.65,21.79203
113.7,17.88841
113.75,12.59833
113.8,8.76814
113.85,6.747128
113.9,6.06698
113.95,7.073122
114,8.457886
114.05,8.584791
114.1,7.830188
114.15,7.027986
114.2,5.60721
114.25,3.350567
114.3,1.550335
114.35,0.9202788
114.4,1.040323
114.45,1.893568
114.5,2.615107
114.55,2.368626
114.6,1.286078
114.65,0.6060018
114.7,0.7995451
114.75,0.8285328
114.8,0.7518394
114.85,0.8482076
114.9,0.9261928
114.95,0.8616502
115,1.334045
115.05,2.45446
115.1,2.677125
115.15,2.673411
115.2,2.739
115.25,2.526361
115.3,2.647712
115.35,3.102848
115.4,3.006866
115.45,2.243608
115.5,1.554348
115.55,0.4617602
115.6,-0.4952739
115.65,-0.8113348
115.7,-1.350962
115.75,-1.946828
115.8,-1.489739
115.85,-0.4213478
115.9,0.2423005
115.95,0.6778613
116,0.5051402
116.05,-0.6078391
116.1,-1.91243
116.15,-2.465891
116.2,-2.606834
116.25,-2.711308
116.3,-2.810898
116.35,-3.13313
116.4,-3.5993
116.45,-3.956123
116.5,-4.197079
116.55,-4.526768
116.6,-4.606597
116.65,-4.488477
116.7,-4.40483
116.75,-4.214427
116.8,-3.999376
116.85,-3.887946
116.9,-3.867375
116.95,-3.70571
117,-3.413843
117.05,-3.457874
117.1,-3.760674
117.15,-4.230713
117.2,-4.70795
117.25,-5.028651
117.3,-5.125226
117.35,-4.994743
117.4,-4.879419
117.45,-4.807261
117.5,-4.752691
117.55,-4.722631
117.6,-4.70449
117.65,-4.80998
117.7,-4.831589
117.75,-4.839626
117.8,-4.857191
117.85,-4.612756
117.9,-4.433994
117.95,-4.45581
118,-4.564754
118.05,-4.700929
118.1,-4.856862
118.15,-4.939676
118.2,-4.862848
118.25,-4.83803
118.3,-4.780841
118.35,-4.674939
118.4,-4.606395
118.45,-4.469944
118.5,-4.366208
118.55,-4.244256
118.6,-4.209092
118.65,-4.193766
118.7,-4.191459
118.75,-4.220229
118.8,-4.344169
118.85,-4.58038
118.9,-4.725772
118.95,-4.849402
119,-4.80214
119.05,-4.630913
119.1,-4.39038
119.15,-4.147789
119.2,-3.904601
119.25,-3.84539
119.3,-4.005364
119.35,-4.340236
119.4,-4.516503
119.45,-4.397433
119.5,-4.34739
119.55,-4.441858
119.6,-4.731998
119.65,-5.006503
119.7,-5.226878
119.75,-5.173026
119.8,-4.954738
119.85,-4.993213
119.9,-5.047377
119.95,-5.172424
120,-5.180558
120.05,-4.789813
120.1,-4.408751
120.15,-4.133958
120.2,-4.223465
120.25,-4.508118
120.3,-4.939201
120.35,-5.235055
120.4,-5.318523
120.45,-5.378965
120.5,-5.263045
120.55,-5.045536
120.6,-4.921671
120.65,-4.92067
120.7,-4.909572
120.75,-4.925235
120.8,-4.991851
120.85,-5.029407
120.9,-4.975198
120.95,-4.871344
121,-4.717145
121.05,-4.589652
121.1,-4.492184
121.15,-4.501263
121.2,-4.456621
121.25,-4.515965
121.3,-4.764023
121.35,-4.996491
121.4,-5.194104
121.45,-5.199791
121.5,-5.160628
121.55,-5.11665
121.6,-5.167315
121.65,-5.042169
121.7,-4.706213
121.75,-4.442856
121.8,-4.265776
121.85,-4.205123
121.9,-4.514389
121.95,-4.767887
122,-4.980985
122.05,-5.047734
122.1,-4.898513
122.15,-4.583489
122.2,-4.44652
122.25,-4.655553
122.3,-4.769217
122.35,-5.024709
122.4,-5.019917
122.45,-4.949828
122.5,-5.028457
122.55,-5.20085
122.6,-5.243861
122.65,-5.171538
122.7,-4.991396
122.75,-4.768795
122.8,-4.786866
122.85,-4.926562
122.9,-4.962574
122.95,-4.949864
123,-4.969237
123.05,-5.040659
123.1,-5.037603
123.15,-5.106017
123.2,-5.110492
123.25,-5.029589
123.3,-4.996758
123.35,-4.926561
123.4,-4.81629
123.45,-4.642273
123.5,-4.62221
123.55,-4.887017
123.6,-4.896081
123.65,-4.633267
123.7,-4.378101
123.75,-4.391214
123.8,-4.631475
123.85,-4.955988
123.9,-5.265669
123.95,-5.216975
124,-4.931848
124.05,-4.67204
124.1,-4.493553
124.15,-4.484372
124.2,-4.678141
124.25,-4.905967
124.3,-5.020432
124.35,-5.070471
124.4,-5.073072
124.45,-5.224765
124.5,-5.31964
124.55,-5.412661
124.6,-5.353849
124.65,-5.322102
124.7,-5.309146
124.75,-5.311377
124.8,-5.366512
124.85,-5.262682
124.9,-5.285581
124.95,-5.244904
125,-5.253648
125.05,-5.266229
125.1,-5.269468
125.15,-5.156033
125.2,-4.916739
125.25,-4.901203
125.3,-4.934371
125.35,-5.099836
125.4,-5.263108
125.45,-5.358703
125.5,-5.299788
125.55,-5.249719
125.6,-5.364306
125.65,-5.369435
125.7,-5.335577
125.75,-5.274405
125.8,-5.308975
125.85,-5.211926
125.9,-5.213775
125.95,-5.204012
126,-5.201647
126.05,-5.277881
126.1,-5.360786
126.15,-5.421161
126.2,-5.33322
126.25,-5.31063
126.3,-5.352392
126.35,-5.332211
126.4,-5.215985
126.45,-5.116338
126.5,-4.996642
126.55,-4.871521
126.6,-4.849289
126.65,-5.028875
126.7,-5.112231
126.75,-5.321033
126.8,-5.468328
126.85,-5.4436
126.9,-5.373939
126.95,-5.410881
127,-5.491195
127.05,-5.517447
127.1,-5.559944
127.15,-5.271836
127.2,-5.110583
127.25,-5.132223
127.3,-5.244023
127.35,-5.378456
127.4,-5.470139
127.45,-5.486244
127.5,-5.399175
127.55,-5.452723
127.6,-5.453086
127.65,-5.43097
127.7,-5.449281
127.75,-5.491882
127.8,-5.491882
127.85,-5.491882
127.9,-5.491882
127.95,-5.491882
128,-5.491882
128.05,-5.491882
128.1,-5.491882
128.15,-5.491882
128.2,-5.491882
128.25,-5.491882
128.3,-5.491882
128.35,-5.491882
128.4,-5.491882
128.45,-5.491882
128.5,-5.491882
128.55,-5.491882
128.6,-5.491882
128.65,-5.491882
128.7,-5.491882
128.75,-5.491882
128.8,-5.491882
128.85,-5.491882
128.9,-5.491882
128.95,-5.491882
129,-5.491882
129.05,-5.491882
129.1,-5.491882
129.15,-5.491882
129.2,-5.491882
129.25,-5.491882
129.3,-5.491882
129.35,-5.491882
129.4,-5.491882
129.45,-5.491882
129.5,-5.491882
129.55,-5.491882
129.6,-5.491882
129.65,-5.491882
129.7,-5.491882
129.75,-5.491882
129.8,-5.491882
129.85,-5.491882
129.9,-5.491882
129.95,-5.491882
130,-5.491882
130.05,-5.491882
130.1,-5.491882
130.15,-5.491882
130.2,-5.491882
130.25,-5.491882
130.3,-5.491882
130.35,-5.491882
130.4,-5.491882
130.45,-5.491882
130.5,-5.491882
130.55,-5.491882
130.6,-5.491882
130.65,-5.491882
130.7,-5.491882
130.75,-5.491882
130.8,-5.491882
130.85,-5.491882
130.9,-5.491882
130.95,-5.491882
131,-5.491882
131.05,-5.491882
131.1,-5.491882
131.15,-5.491882
131.2,-5.491882
131.25,-5.491882
131.3,-5.491882
131.35,-5.491882
131.4,-5.491882
131.45,-5.491882
131.5,-5.491882
131.55,-5.491882
131.6,-5.491882
131.65,-5.491882
131.7,-5.491882
131.75,-5.491882
131.8,-5.491882
131.85,-5.491882
131.9,-5.491882
131.95,-5.491882
132,-5.491882
132.05,-5.491882
132.1,-5.491882
132.15,-5.491882
132.2,-5.491882
132.25,-5.491882
132.3,-5.491882
132.35,-5.491882
132.4,-5.491882
132.45,-5.491882
132.5,-5.491882
132.55,-5.491882
132.6,-5.491882
132.65,-5.491882
132.7,-5.491882
132.75,-5.491882
132.8,-5.491882
132.85,-5.491882
132.9,-5.491882
132.95,-5.491882
133,-5.491882
133.05,-5.491882
133.1,-5.491882
133.15,-5.491882
133.2,-5.491882
133.25,-5.491882
133.3,-5.491882
133.35,-5.491882
133.4,-5.491882
133.45,-5.491882
133.5,-5.491882
133.55,-5.491882
133.6,-5.491882
133.65,-5.491882
133.7,-5.491882
133.75,-5.491882
133.8,-5.491882
133.85,-5.491882
133.9,-5.491882
133.95,-5.491882
134,-5.491882
134.05,-5.491882
134.1,-5.491882
134.15,-5.491882
134.2,-5.491882
134.25,-5.491882
134.3,-5.491882
134.35,-5.491882
134.4,-5.491882
134.45,-5.491882
134.5,-5.491882
134.55,-5.491882
134.6,-5.491882
134.65,-5.491882
134.7,-5.491882
134.75,-5.491882
134.8,-5.491882
134.85,-5.491882
134.9,-5.491882
134.95,-5.491882
135,-5.491882
135.05,-5.491882
135.1,-5.491882
135.15,-5.491882
135.2,-5.491882
135.25,-5.491882
135.3,-5.491882
135.35,-5.491882
135.4,-5.491882
135.45,-5.491882
135.5,-5.491882
135.55,-5.491882
135.6,-5.491882
135.65,-5.491882
135.7,-5.491882
135.75,-5.491882
135.8,-5.491882
135.85,-5.491882
135.9,-5.491882
135.95,-5.491882
136,-5.491882
136.05,-5.491882
136.1,-5.491882
136.15,-5.491882
136.2,-5.491882
136.25,-5.491882
136.3,-5.491882
136.35,-5.491882
136.4,-5.491882
136.45,-5.491882
136.5,-5.491882
136.55,-5.491882
136.6,-5.491882
136.65,-5.491882
136.7,-5.491882
136.75,-5.491882
136.8,-5.491882
136.85,-5.491882
136.9,-5.491882
136.95,-5.491882
137,-5.491882
137.05,-5.491882
137.1,-5.491882
137.15,-5.491882
137.2,-5.491882
137.25,-5.491882
137.3,-5.491882
137.35,-5.491882
137.4,-5.491882
137.45,-5.491882
137.5,-5.491882
137.55,-5.491882
137.6,-5.491882
137.65,-5.491882
137.7,-5.491882
137.75,-5.491882
137.8,-5.491882
137.85,-5.491882
137.9,-5.491882
137.95,-5.491882
138,-5.491882
 
Alignment,On
